 # E (eV)   ldos(E)
  -5.0000    0.0000E+000
  -4.9925    0.0000E+000
  -4.9850    0.0000E+000
  -4.9775    0.0000E+000
  -4.9700    0.0000E+000
  -4.9625    0.0000E+000
  -4.9550    0.0000E+000
  -4.9475    0.0000E+000
  -4.9400    0.0000E+000
  -4.9325    0.0000E+000
  -4.9250    0.0000E+000
  -4.9175    0.0000E+000
  -4.9100    0.0000E+000
  -4.9025    0.0000E+000
  -4.8949    0.0000E+000
  -4.8874    0.0000E+000
  -4.8799    0.0000E+000
  -4.8724    0.0000E+000
  -4.8649    0.0000E+000
  -4.8574    0.0000E+000
  -4.8499    0.0000E+000
  -4.8424    0.0000E+000
  -4.8349    0.0000E+000
  -4.8274    0.0000E+000
  -4.8199    0.0000E+000
  -4.8124    0.0000E+000
  -4.8049    0.0000E+000
  -4.7974    0.0000E+000
  -4.7899    0.0000E+000
  -4.7824    0.0000E+000
  -4.7749    0.0000E+000
  -4.7674    0.0000E+000
  -4.7599    0.0000E+000
  -4.7524    0.0000E+000
  -4.7449    0.0000E+000
  -4.7374    0.0000E+000
  -4.7299    0.0000E+000
  -4.7224    0.0000E+000
  -4.7149    0.0000E+000
  -4.7074    0.0000E+000
  -4.6998    0.0000E+000
  -4.6923    0.0000E+000
  -4.6848    0.0000E+000
  -4.6773    0.0000E+000
  -4.6698    0.0000E+000
  -4.6623    0.0000E+000
  -4.6548    0.0000E+000
  -4.6473    0.0000E+000
  -4.6398    0.0000E+000
  -4.6323    0.0000E+000
  -4.6248    0.0000E+000
  -4.6173    0.0000E+000
  -4.6098    0.0000E+000
  -4.6023    0.0000E+000
  -4.5948    0.0000E+000
  -4.5873    0.0000E+000
  -4.5798    0.0000E+000
  -4.5723    0.0000E+000
  -4.5648    0.0000E+000
  -4.5573    0.0000E+000
  -4.5498    0.0000E+000
  -4.5423    0.0000E+000
  -4.5348    0.0000E+000
  -4.5273    0.0000E+000
  -4.5198    0.0000E+000
  -4.5123    0.0000E+000
  -4.5048    0.0000E+000
  -4.4972    0.0000E+000
  -4.4897    0.0000E+000
  -4.4822    0.0000E+000
  -4.4747    0.0000E+000
  -4.4672    0.0000E+000
  -4.4597    0.0000E+000
  -4.4522    0.0000E+000
  -4.4447    0.0000E+000
  -4.4372    0.0000E+000
  -4.4297    0.0000E+000
  -4.4222    0.0000E+000
  -4.4147    0.0000E+000
  -4.4072    0.0000E+000
  -4.3997    0.0000E+000
  -4.3922    0.0000E+000
  -4.3847    0.3050E-304
  -4.3772    0.8463E-301
  -4.3697    0.2236E-297
  -4.3622    0.5646E-294
  -4.3547    0.1363E-290
  -4.3472    0.3146E-287
  -4.3397    0.6942E-284
  -4.3322    0.1464E-280
  -4.3247    0.2953E-277
  -4.3172    0.5691E-274
  -4.3097    0.1049E-270
  -4.3022    0.1848E-267
  -4.2946    0.3111E-264
  -4.2871    0.5009E-261
  -4.2796    0.7709E-258
  -4.2721    0.1134E-254
  -4.2646    0.1595E-251
  -4.2571    0.2145E-248
  -4.2496    0.2757E-245
  -4.2421    0.3388E-242
  -4.2346    0.3980E-239
  -4.2271    0.4469E-236
  -4.2196    0.4797E-233
  -4.2121    0.4923E-230
  -4.2046    0.4830E-227
  -4.1971    0.4530E-224
  -4.1896    0.4062E-221
  -4.1821    0.3482E-218
  -4.1746    0.2853E-215
  -4.1671    0.2235E-212
  -4.1596    0.1673E-209
  -4.1521    0.1198E-206
  -4.1446    0.8198E-204
  -4.1371    0.5363E-201
  -4.1296    0.3354E-198
  -4.1221    0.2006E-195
  -4.1146    0.1146E-192
  -4.1071    0.6264E-190
  -4.0995    0.3272E-187
  -4.0920    0.1634E-184
  -4.0845    0.7800E-182
  -4.0770    0.3560E-179
  -4.0695    0.1553E-176
  -4.0620    0.6477E-174
  -4.0545    0.2582E-171
  -4.0470    0.9843E-169
  -4.0395    0.3587E-166
  -4.0320    0.1249E-163
  -4.0245    0.4161E-161
  -4.0170    0.1325E-158
  -4.0095    0.4031E-156
  -4.0020    0.1173E-153
  -3.9945    0.3262E-151
  -3.9870    0.8675E-149
  -3.9795    0.2205E-146
  -3.9720    0.5359E-144
  -3.9645    0.1245E-141
  -3.9570    0.2765E-139
  -3.9495    0.5870E-137
  -3.9420    0.1191E-134
  -3.9345    0.2312E-132
  -3.9270    0.4288E-130
  -3.9195    0.7604E-128
  -3.9120    0.1289E-125
  -3.9045    0.2089E-123
  -3.8969    0.3237E-121
  -3.8894    0.4795E-119
  -3.8819    0.6789E-117
  -3.8744    0.9190E-115
  -3.8669    0.1189E-112
  -3.8594    0.1471E-110
  -3.8519    0.1740E-108
  -3.8444    0.1968E-106
  -3.8369    0.2127E-104
  -3.8294    0.2198E-102
  -3.8219    0.2171E-100
  -3.8144    0.2051E-098
  -3.8069    0.1851E-096
  -3.7994    0.1598E-094
  -3.7919    0.1319E-092
  -3.7844    0.1040E-090
  -3.7769    0.7846E-089
  -3.7694    0.5657E-087
  -3.7619    0.3899E-085
  -3.7544    0.2569E-083
  -3.7469    0.1619E-081
  -3.7394    0.9748E-080
  -3.7319    0.5612E-078
  -3.7244    0.3089E-076
  -3.7169    0.1626E-074
  -3.7094    0.8178E-073
  -3.7019    0.3933E-071
  -3.6943    0.1809E-069
  -3.6868    0.7950E-068
  -3.6793    0.3341E-066
  -3.6718    0.1342E-064
  -3.6643    0.5156E-063
  -3.6568    0.1893E-061
  -3.6493    0.6647E-060
  -3.6418    0.2231E-058
  -3.6343    0.7158E-057
  -3.6268    0.2196E-055
  -3.6193    0.6440E-054
  -3.6118    0.1806E-052
  -3.6043    0.4841E-051
  -3.5968    0.1241E-049
  -3.5893    0.3039E-048
  -3.5818    0.7120E-047
  -3.5743    0.1595E-045
  -3.5668    0.3414E-044
  -3.5593    0.6989E-043
  -3.5518    0.1368E-041
  -3.5443    0.2559E-040
  -3.5368    0.4578E-039
  -3.5293    0.7830E-038
  -3.5218    0.1280E-036
  -3.5143    0.2002E-035
  -3.5068    0.2992E-034
  -3.4992    0.4276E-033
  -3.4917    0.5842E-032
  -3.4842    0.7632E-031
  -3.4767    0.9533E-030
  -3.4692    0.1138E-028
  -3.4617    0.1300E-027
  -3.4542    0.1419E-026
  -3.4467    0.1481E-025
  -3.4392    0.1478E-024
  -3.4317    0.1410E-023
  -3.4242    0.1287E-022
  -3.4167    0.1123E-021
  -3.4092    0.9363E-021
  -3.4017    0.7468E-020
  -3.3942    0.5695E-019
  -3.3867    0.4153E-018
  -3.3792    0.2896E-017
  -3.3717    0.1931E-016
  -3.3642    0.1231E-015
  -3.3567    0.7504E-015
  -3.3492    0.4375E-014
  -3.3417    0.2439E-013
  -3.3342    0.1300E-012
  -3.3267    0.6628E-012
  -3.3192    0.3231E-011
  -3.3117    0.1507E-010
  -3.3042    0.6718E-010
  -3.2966    0.2865E-009
  -3.2891    0.1168E-008
  -3.2816    0.4558E-008
  -3.2741    0.1701E-007
  -3.2666    0.6069E-007
  -3.2591    0.2072E-006
  -3.2516    0.6765E-006
  -3.2441    0.2113E-005
  -3.2366    0.6315E-005
  -3.2291    0.1806E-004
  -3.2216    0.4939E-004
  -3.2141    0.1293E-003
  -3.2066    0.3238E-003
  -3.1991    0.7762E-003
  -3.1916    0.1781E-002
  -3.1841    0.3911E-002
  -3.1766    0.8222E-002
  -3.1691    0.1655E-001
  -3.1616    0.3190E-001
  -3.1541    0.5891E-001
  -3.1466    0.1042E+000
  -3.1391    0.1766E+000
  -3.1316    0.2870E+000
  -3.1241    0.4473E+000
  -3.1166    0.6686E+000
  -3.1091    0.9593E+000
  -3.1016    0.1322E+001
  -3.0940    0.1751E+001
  -3.0865    0.2230E+001
  -3.0790    0.2736E+001
  -3.0715    0.3235E+001
  -3.0640    0.3694E+001
  -3.0565    0.4081E+001
  -3.0490    0.4370E+001
  -3.0415    0.4548E+001
  -3.0340    0.4614E+001
  -3.0265    0.4578E+001
  -3.0190    0.4460E+001
  -3.0115    0.4283E+001
  -3.0040    0.4071E+001
  -2.9965    0.3846E+001
  -2.9890    0.3622E+001
  -2.9815    0.3411E+001
  -2.9740    0.3219E+001
  -2.9665    0.3047E+001
  -2.9590    0.2896E+001
  -2.9515    0.2763E+001
  -2.9440    0.2646E+001
  -2.9365    0.2543E+001
  -2.9290    0.2450E+001
  -2.9215    0.2367E+001
  -2.9140    0.2292E+001
  -2.9065    0.2223E+001
  -2.8989    0.2160E+001
  -2.8914    0.2103E+001
  -2.8839    0.2049E+001
  -2.8764    0.2000E+001
  -2.8689    0.1955E+001
  -2.8614    0.1912E+001
  -2.8539    0.1873E+001
  -2.8464    0.1836E+001
  -2.8389    0.1802E+001
  -2.8314    0.1770E+001
  -2.8239    0.1740E+001
  -2.8164    0.1712E+001
  -2.8089    0.1685E+001
  -2.8014    0.1660E+001
  -2.7939    0.1636E+001
  -2.7864    0.1614E+001
  -2.7789    0.1592E+001
  -2.7714    0.1572E+001
  -2.7639    0.1553E+001
  -2.7564    0.1534E+001
  -2.7489    0.1517E+001
  -2.7414    0.1500E+001
  -2.7339    0.1484E+001
  -2.7264    0.1469E+001
  -2.7189    0.1454E+001
  -2.7114    0.1439E+001
  -2.7039    0.1425E+001
  -2.6963    0.1412E+001
  -2.6888    0.1399E+001
  -2.6813    0.1386E+001
  -2.6738    0.1374E+001
  -2.6663    0.1362E+001
  -2.6588    0.1350E+001
  -2.6513    0.1339E+001
  -2.6438    0.1327E+001
  -2.6363    0.1316E+001
  -2.6288    0.1306E+001
  -2.6213    0.1295E+001
  -2.6138    0.1285E+001
  -2.6063    0.1274E+001
  -2.5988    0.1264E+001
  -2.5913    0.1254E+001
  -2.5838    0.1245E+001
  -2.5763    0.1235E+001
  -2.5688    0.1226E+001
  -2.5613    0.1216E+001
  -2.5538    0.1207E+001
  -2.5463    0.1198E+001
  -2.5388    0.1189E+001
  -2.5313    0.1180E+001
  -2.5238    0.1172E+001
  -2.5163    0.1163E+001
  -2.5088    0.1155E+001
  -2.5013    0.1146E+001
  -2.4937    0.1138E+001
  -2.4862    0.1130E+001
  -2.4787    0.1122E+001
  -2.4712    0.1114E+001
  -2.4637    0.1107E+001
  -2.4562    0.1099E+001
  -2.4487    0.1092E+001
  -2.4412    0.1084E+001
  -2.4337    0.1077E+001
  -2.4262    0.1070E+001
  -2.4187    0.1063E+001
  -2.4112    0.1056E+001
  -2.4037    0.1050E+001
  -2.3962    0.1043E+001
  -2.3887    0.1037E+001
  -2.3812    0.1030E+001
  -2.3737    0.1024E+001
  -2.3662    0.1018E+001
  -2.3587    0.1012E+001
  -2.3512    0.1006E+001
  -2.3437    0.1001E+001
  -2.3362    0.9951E+000
  -2.3287    0.9896E+000
  -2.3212    0.9843E+000
  -2.3137    0.9791E+000
  -2.3062    0.9740E+000
  -2.2986    0.9689E+000
  -2.2911    0.9641E+000
  -2.2836    0.9593E+000
  -2.2761    0.9546E+000
  -2.2686    0.9500E+000
  -2.2611    0.9455E+000
  -2.2536    0.9411E+000
  -2.2461    0.9368E+000
  -2.2386    0.9326E+000
  -2.2311    0.9285E+000
  -2.2236    0.9245E+000
  -2.2161    0.9205E+000
  -2.2086    0.9167E+000
  -2.2011    0.9129E+000
  -2.1936    0.9092E+000
  -2.1861    0.9056E+000
  -2.1786    0.9020E+000
  -2.1711    0.8986E+000
  -2.1636    0.8951E+000
  -2.1561    0.8918E+000
  -2.1486    0.8885E+000
  -2.1411    0.8853E+000
  -2.1336    0.8821E+000
  -2.1261    0.8790E+000
  -2.1186    0.8759E+000
  -2.1111    0.8729E+000
  -2.1036    0.8700E+000
  -2.0960    0.8671E+000
  -2.0885    0.8642E+000
  -2.0810    0.8614E+000
  -2.0735    0.8586E+000
  -2.0660    0.8558E+000
  -2.0585    0.8531E+000
  -2.0510    0.8504E+000
  -2.0435    0.8478E+000
  -2.0360    0.8452E+000
  -2.0285    0.8426E+000
  -2.0210    0.8400E+000
  -2.0135    0.8375E+000
  -2.0060    0.8349E+000
  -1.9985    0.8324E+000
  -1.9910    0.8300E+000
  -1.9835    0.8275E+000
  -1.9760    0.8251E+000
  -1.9685    0.8227E+000
  -1.9610    0.8202E+000
  -1.9535    0.8179E+000
  -1.9460    0.8155E+000
  -1.9385    0.8131E+000
  -1.9310    0.8107E+000
  -1.9235    0.8084E+000
  -1.9160    0.8061E+000
  -1.9085    0.8037E+000
  -1.9010    0.8014E+000
  -1.8934    0.7991E+000
  -1.8859    0.7968E+000
  -1.8784    0.7945E+000
  -1.8709    0.7922E+000
  -1.8634    0.7899E+000
  -1.8559    0.7876E+000
  -1.8484    0.7853E+000
  -1.8409    0.7830E+000
  -1.8334    0.7808E+000
  -1.8259    0.7785E+000
  -1.8184    0.7762E+000
  -1.8109    0.7740E+000
  -1.8034    0.7717E+000
  -1.7959    0.7695E+000
  -1.7884    0.7672E+000
  -1.7809    0.7650E+000
  -1.7734    0.7628E+000
  -1.7659    0.7606E+000
  -1.7584    0.7583E+000
  -1.7509    0.7561E+000
  -1.7434    0.7539E+000
  -1.7359    0.7517E+000
  -1.7284    0.7495E+000
  -1.7209    0.7473E+000
  -1.7134    0.7451E+000
  -1.7059    0.7430E+000
  -1.6983    0.7408E+000
  -1.6908    0.7387E+000
  -1.6833    0.7365E+000
  -1.6758    0.7344E+000
  -1.6683    0.7323E+000
  -1.6608    0.7301E+000
  -1.6533    0.7280E+000
  -1.6458    0.7260E+000
  -1.6383    0.7239E+000
  -1.6308    0.7218E+000
  -1.6233    0.7198E+000
  -1.6158    0.7177E+000
  -1.6083    0.7157E+000
  -1.6008    0.7137E+000
  -1.5933    0.7117E+000
  -1.5858    0.7097E+000
  -1.5783    0.7077E+000
  -1.5708    0.7058E+000
  -1.5633    0.7039E+000
  -1.5558    0.7019E+000
  -1.5483    0.7000E+000
  -1.5408    0.6982E+000
  -1.5333    0.6963E+000
  -1.5258    0.6944E+000
  -1.5183    0.6926E+000
  -1.5108    0.6908E+000
  -1.5033    0.6890E+000
  -1.4957    0.6872E+000
  -1.4882    0.6855E+000
  -1.4807    0.6837E+000
  -1.4732    0.6820E+000
  -1.4657    0.6803E+000
  -1.4582    0.6786E+000
  -1.4507    0.6769E+000
  -1.4432    0.6753E+000
  -1.4357    0.6737E+000
  -1.4282    0.6720E+000
  -1.4207    0.6704E+000
  -1.4132    0.6689E+000
  -1.4057    0.6673E+000
  -1.3982    0.6658E+000
  -1.3907    0.6643E+000
  -1.3832    0.6628E+000
  -1.3757    0.6613E+000
  -1.3682    0.6598E+000
  -1.3607    0.6584E+000
  -1.3532    0.6569E+000
  -1.3457    0.6555E+000
  -1.3382    0.6541E+000
  -1.3307    0.6528E+000
  -1.3232    0.6514E+000
  -1.3157    0.6501E+000
  -1.3082    0.6487E+000
  -1.3007    0.6474E+000
  -1.2931    0.6461E+000
  -1.2856    0.6449E+000
  -1.2781    0.6436E+000
  -1.2706    0.6424E+000
  -1.2631    0.6411E+000
  -1.2556    0.6399E+000
  -1.2481    0.6387E+000
  -1.2406    0.6375E+000
  -1.2331    0.6363E+000
  -1.2256    0.6352E+000
  -1.2181    0.6340E+000
  -1.2106    0.6329E+000
  -1.2031    0.6318E+000
  -1.1956    0.6307E+000
  -1.1881    0.6296E+000
  -1.1806    0.6285E+000
  -1.1731    0.6274E+000
  -1.1656    0.6263E+000
  -1.1581    0.6253E+000
  -1.1506    0.6242E+000
  -1.1431    0.6232E+000
  -1.1356    0.6222E+000
  -1.1281    0.6212E+000
  -1.1206    0.6202E+000
  -1.1131    0.6192E+000
  -1.1056    0.6182E+000
  -1.0980    0.6172E+000
  -1.0905    0.6162E+000
  -1.0830    0.6152E+000
  -1.0755    0.6143E+000
  -1.0680    0.6133E+000
  -1.0605    0.6124E+000
  -1.0530    0.6114E+000
  -1.0455    0.6105E+000
  -1.0380    0.6095E+000
  -1.0305    0.6086E+000
  -1.0230    0.6077E+000
  -1.0155    0.6068E+000
  -1.0080    0.6058E+000
  -1.0005    0.6049E+000
  -0.9930    0.6040E+000
  -0.9855    0.6031E+000
  -0.9780    0.6022E+000
  -0.9705    0.6013E+000
  -0.9630    0.6004E+000
  -0.9555    0.5995E+000
  -0.9480    0.5986E+000
  -0.9405    0.5977E+000
  -0.9330    0.5968E+000
  -0.9255    0.5959E+000
  -0.9180    0.5950E+000
  -0.9105    0.5941E+000
  -0.9030    0.5932E+000
  -0.8954    0.5923E+000
  -0.8879    0.5914E+000
  -0.8804    0.5906E+000
  -0.8729    0.5897E+000
  -0.8654    0.5888E+000
  -0.8579    0.5879E+000
  -0.8504    0.5870E+000
  -0.8429    0.5861E+000
  -0.8354    0.5852E+000
  -0.8279    0.5843E+000
  -0.8204    0.5834E+000
  -0.8129    0.5825E+000
  -0.8054    0.5816E+000
  -0.7979    0.5807E+000
  -0.7904    0.5798E+000
  -0.7829    0.5789E+000
  -0.7754    0.5780E+000
  -0.7679    0.5771E+000
  -0.7604    0.5762E+000
  -0.7529    0.5753E+000
  -0.7454    0.5744E+000
  -0.7379    0.5735E+000
  -0.7304    0.5726E+000
  -0.7229    0.5717E+000
  -0.7154    0.5708E+000
  -0.7079    0.5699E+000
  -0.7004    0.5690E+000
  -0.6928    0.5681E+000
  -0.6853    0.5671E+000
  -0.6778    0.5662E+000
  -0.6703    0.5653E+000
  -0.6628    0.5644E+000
  -0.6553    0.5635E+000
  -0.6478    0.5626E+000
  -0.6403    0.5617E+000
  -0.6328    0.5608E+000
  -0.6253    0.5599E+000
  -0.6178    0.5590E+000
  -0.6103    0.5580E+000
  -0.6028    0.5571E+000
  -0.5953    0.5562E+000
  -0.5878    0.5553E+000
  -0.5803    0.5544E+000
  -0.5728    0.5535E+000
  -0.5653    0.5526E+000
  -0.5578    0.5517E+000
  -0.5503    0.5508E+000
  -0.5428    0.5499E+000
  -0.5353    0.5490E+000
  -0.5278    0.5481E+000
  -0.5203    0.5472E+000
  -0.5128    0.5464E+000
  -0.5053    0.5455E+000
  -0.4977    0.5446E+000
  -0.4902    0.5437E+000
  -0.4827    0.5428E+000
  -0.4752    0.5420E+000
  -0.4677    0.5411E+000
  -0.4602    0.5402E+000
  -0.4527    0.5394E+000
  -0.4452    0.5385E+000
  -0.4377    0.5377E+000
  -0.4302    0.5368E+000
  -0.4227    0.5360E+000
  -0.4152    0.5351E+000
  -0.4077    0.5343E+000
  -0.4002    0.5334E+000
  -0.3927    0.5326E+000
  -0.3852    0.5318E+000
  -0.3777    0.5310E+000
  -0.3702    0.5302E+000
  -0.3627    0.5293E+000
  -0.3552    0.5285E+000
  -0.3477    0.5277E+000
  -0.3402    0.5269E+000
  -0.3327    0.5262E+000
  -0.3252    0.5254E+000
  -0.3177    0.5246E+000
  -0.3102    0.5238E+000
  -0.3027    0.5231E+000
  -0.2951    0.5223E+000
  -0.2876    0.5215E+000
  -0.2801    0.5208E+000
  -0.2726    0.5201E+000
  -0.2651    0.5193E+000
  -0.2576    0.5186E+000
  -0.2501    0.5179E+000
  -0.2426    0.5171E+000
  -0.2351    0.5164E+000
  -0.2276    0.5157E+000
  -0.2201    0.5150E+000
  -0.2126    0.5143E+000
  -0.2051    0.5136E+000
  -0.1976    0.5130E+000
  -0.1901    0.5123E+000
  -0.1826    0.5116E+000
  -0.1751    0.5110E+000
  -0.1676    0.5103E+000
  -0.1601    0.5097E+000
  -0.1526    0.5090E+000
  -0.1451    0.5084E+000
  -0.1376    0.5077E+000
  -0.1301    0.5071E+000
  -0.1226    0.5065E+000
  -0.1151    0.5059E+000
  -0.1076    0.5053E+000
  -0.1001    0.5047E+000
  -0.0925    0.5041E+000
  -0.0850    0.5035E+000
  -0.0775    0.5029E+000
  -0.0700    0.5023E+000
  -0.0625    0.5018E+000
  -0.0550    0.5012E+000
  -0.0475    0.5007E+000
  -0.0400    0.5001E+000
  -0.0325    0.4996E+000
  -0.0250    0.4990E+000
  -0.0175    0.4985E+000
  -0.0100    0.4979E+000
  -0.0025    0.4974E+000
   0.0050    0.4969E+000
   0.0125    0.4964E+000
   0.0200    0.4959E+000
   0.0275    0.4954E+000
   0.0350    0.4949E+000
   0.0425    0.4944E+000
   0.0500    0.4939E+000
   0.0575    0.4934E+000
   0.0650    0.4929E+000
   0.0725    0.4925E+000
   0.0800    0.4920E+000
   0.0875    0.4915E+000
   0.0950    0.4911E+000
   0.1026    0.4906E+000
   0.1101    0.4901E+000
   0.1176    0.4897E+000
   0.1251    0.4892E+000
   0.1326    0.4888E+000
   0.1401    0.4884E+000
   0.1476    0.4879E+000
   0.1551    0.4875E+000
   0.1626    0.4871E+000
   0.1701    0.4867E+000
   0.1776    0.4862E+000
   0.1851    0.4858E+000
   0.1926    0.4854E+000
   0.2001    0.4850E+000
   0.2076    0.4846E+000
   0.2151    0.4842E+000
   0.2226    0.4838E+000
   0.2301    0.4834E+000
   0.2376    0.4830E+000
   0.2451    0.4826E+000
   0.2526    0.4822E+000
   0.2601    0.4818E+000
   0.2676    0.4814E+000
   0.2751    0.4810E+000
   0.2826    0.4806E+000
   0.2901    0.4802E+000
   0.2976    0.4798E+000
   0.3052    0.4795E+000
   0.3127    0.4791E+000
   0.3202    0.4787E+000
   0.3277    0.4783E+000
   0.3352    0.4779E+000
   0.3427    0.4776E+000
   0.3502    0.4772E+000
   0.3577    0.4768E+000
   0.3652    0.4764E+000
   0.3727    0.4761E+000
   0.3802    0.4757E+000
   0.3877    0.4753E+000
   0.3952    0.4749E+000
   0.4027    0.4746E+000
   0.4102    0.4742E+000
   0.4177    0.4738E+000
   0.4252    0.4735E+000
   0.4327    0.4731E+000
   0.4402    0.4727E+000
   0.4477    0.4723E+000
   0.4552    0.4720E+000
   0.4627    0.4716E+000
   0.4702    0.4712E+000
   0.4777    0.4709E+000
   0.4852    0.4705E+000
   0.4927    0.4701E+000
   0.5003    0.4697E+000
   0.5078    0.4694E+000
   0.5153    0.4690E+000
   0.5228    0.4686E+000
   0.5303    0.4682E+000
   0.5378    0.4679E+000
   0.5453    0.4675E+000
   0.5528    0.4671E+000
   0.5603    0.4667E+000
   0.5678    0.4663E+000
   0.5753    0.4660E+000
   0.5828    0.4656E+000
   0.5903    0.4652E+000
   0.5978    0.4648E+000
   0.6053    0.4644E+000
   0.6128    0.4641E+000
   0.6203    0.4637E+000
   0.6278    0.4633E+000
   0.6353    0.4629E+000
   0.6428    0.4625E+000
   0.6503    0.4621E+000
   0.6578    0.4617E+000
   0.6653    0.4613E+000
   0.6728    0.4609E+000
   0.6803    0.4605E+000
   0.6878    0.4602E+000
   0.6953    0.4598E+000
   0.7029    0.4594E+000
   0.7104    0.4590E+000
   0.7179    0.4586E+000
   0.7254    0.4582E+000
   0.7329    0.4578E+000
   0.7404    0.4574E+000
   0.7479    0.4570E+000
   0.7554    0.4566E+000
   0.7629    0.4562E+000
   0.7704    0.4558E+000
   0.7779    0.4554E+000
   0.7854    0.4550E+000
   0.7929    0.4546E+000
   0.8004    0.4542E+000
   0.8079    0.4538E+000
   0.8154    0.4534E+000
   0.8229    0.4530E+000
   0.8304    0.4526E+000
   0.8379    0.4521E+000
   0.8454    0.4517E+000
   0.8529    0.4513E+000
   0.8604    0.4509E+000
   0.8679    0.4505E+000
   0.8754    0.4501E+000
   0.8829    0.4497E+000
   0.8904    0.4493E+000
   0.8979    0.4489E+000
   0.9055    0.4485E+000
   0.9130    0.4481E+000
   0.9205    0.4477E+000
   0.9280    0.4473E+000
   0.9355    0.4469E+000
   0.9430    0.4465E+000
   0.9505    0.4461E+000
   0.9580    0.4457E+000
   0.9655    0.4453E+000
   0.9730    0.4449E+000
   0.9805    0.4445E+000
   0.9880    0.4441E+000
