 # E (eV)   ldos(E)
  -5.0000    0.0000E+000
  -4.9925    0.0000E+000
  -4.9850    0.0000E+000
  -4.9775    0.0000E+000
  -4.9700    0.0000E+000
  -4.9625    0.0000E+000
  -4.9550    0.0000E+000
  -4.9475    0.0000E+000
  -4.9400    0.0000E+000
  -4.9325    0.0000E+000
  -4.9250    0.0000E+000
  -4.9175    0.0000E+000
  -4.9100    0.0000E+000
  -4.9025    0.0000E+000
  -4.8949    0.0000E+000
  -4.8874    0.0000E+000
  -4.8799    0.0000E+000
  -4.8724    0.0000E+000
  -4.8649    0.0000E+000
  -4.8574    0.0000E+000
  -4.8499    0.0000E+000
  -4.8424    0.0000E+000
  -4.8349    0.0000E+000
  -4.8274    0.0000E+000
  -4.8199    0.0000E+000
  -4.8124    0.0000E+000
  -4.8049    0.0000E+000
  -4.7974    0.0000E+000
  -4.7899    0.0000E+000
  -4.7824    0.0000E+000
  -4.7749    0.0000E+000
  -4.7674    0.0000E+000
  -4.7599    0.0000E+000
  -4.7524    0.0000E+000
  -4.7449    0.0000E+000
  -4.7374    0.0000E+000
  -4.7299    0.0000E+000
  -4.7224    0.0000E+000
  -4.7149    0.0000E+000
  -4.7074    0.0000E+000
  -4.6998    0.0000E+000
  -4.6923    0.0000E+000
  -4.6848    0.0000E+000
  -4.6773    0.0000E+000
  -4.6698    0.0000E+000
  -4.6623    0.0000E+000
  -4.6548    0.0000E+000
  -4.6473    0.0000E+000
  -4.6398    0.0000E+000
  -4.6323    0.0000E+000
  -4.6248    0.0000E+000
  -4.6173    0.0000E+000
  -4.6098    0.0000E+000
  -4.6023    0.0000E+000
  -4.5948    0.0000E+000
  -4.5873    0.0000E+000
  -4.5798    0.0000E+000
  -4.5723    0.0000E+000
  -4.5648    0.0000E+000
  -4.5573    0.0000E+000
  -4.5498    0.0000E+000
  -4.5423    0.0000E+000
  -4.5348    0.0000E+000
  -4.5273    0.0000E+000
  -4.5198    0.0000E+000
  -4.5123    0.0000E+000
  -4.5048    0.0000E+000
  -4.4972    0.0000E+000
  -4.4897    0.0000E+000
  -4.4822    0.0000E+000
  -4.4747    0.0000E+000
  -4.4672    0.0000E+000
  -4.4597    0.0000E+000
  -4.4522    0.0000E+000
  -4.4447    0.0000E+000
  -4.4372    0.0000E+000
  -4.4297    0.0000E+000
  -4.4222    0.0000E+000
  -4.4147    0.0000E+000
  -4.4072    0.0000E+000
  -4.3997    0.0000E+000
  -4.3922    0.0000E+000
  -4.3847    0.3134E-304
  -4.3772    0.8688E-301
  -4.3697    0.2295E-297
  -4.3622    0.5796E-294
  -4.3547    0.1399E-290
  -4.3472    0.3230E-287
  -4.3397    0.7126E-284
  -4.3322    0.1503E-280
  -4.3247    0.3031E-277
  -4.3172    0.5842E-274
  -4.3097    0.1077E-270
  -4.3022    0.1897E-267
  -4.2946    0.3194E-264
  -4.2871    0.5142E-261
  -4.2796    0.7913E-258
  -4.2721    0.1164E-254
  -4.2646    0.1638E-251
  -4.2571    0.2202E-248
  -4.2496    0.2830E-245
  -4.2421    0.3477E-242
  -4.2346    0.4085E-239
  -4.2271    0.4587E-236
  -4.2196    0.4924E-233
  -4.2121    0.5054E-230
  -4.2046    0.4958E-227
  -4.1971    0.4650E-224
  -4.1896    0.4169E-221
  -4.1821    0.3574E-218
  -4.1746    0.2928E-215
  -4.1671    0.2294E-212
  -4.1596    0.1718E-209
  -4.1521    0.1230E-206
  -4.1446    0.8414E-204
  -4.1371    0.5505E-201
  -4.1296    0.3443E-198
  -4.1221    0.2058E-195
  -4.1146    0.1177E-192
  -4.1071    0.6429E-190
  -4.0995    0.3358E-187
  -4.0920    0.1677E-184
  -4.0845    0.8005E-182
  -4.0770    0.3653E-179
  -4.0695    0.1594E-176
  -4.0620    0.6648E-174
  -4.0545    0.2650E-171
  -4.0470    0.1010E-168
  -4.0395    0.3681E-166
  -4.0320    0.1282E-163
  -4.0245    0.4270E-161
  -4.0170    0.1359E-158
  -4.0095    0.4137E-156
  -4.0020    0.1204E-153
  -3.9945    0.3348E-151
  -3.9870    0.8902E-149
  -3.9795    0.2263E-146
  -3.9720    0.5499E-144
  -3.9645    0.1277E-141
  -3.9570    0.2837E-139
  -3.9495    0.6024E-137
  -3.9420    0.1223E-134
  -3.9345    0.2372E-132
  -3.9270    0.4400E-130
  -3.9195    0.7803E-128
  -3.9120    0.1323E-125
  -3.9045    0.2144E-123
  -3.8969    0.3322E-121
  -3.8894    0.4920E-119
  -3.8819    0.6966E-117
  -3.8744    0.9430E-115
  -3.8669    0.1220E-112
  -3.8594    0.1510E-110
  -3.8519    0.1786E-108
  -3.8444    0.2019E-106
  -3.8369    0.2182E-104
  -3.8294    0.2255E-102
  -3.8219    0.2228E-100
  -3.8144    0.2104E-098
  -3.8069    0.1900E-096
  -3.7994    0.1640E-094
  -3.7919    0.1353E-092
  -3.7844    0.1067E-090
  -3.7769    0.8049E-089
  -3.7694    0.5803E-087
  -3.7619    0.4000E-085
  -3.7544    0.2636E-083
  -3.7469    0.1660E-081
  -3.7394    0.1000E-079
  -3.7319    0.5758E-078
  -3.7244    0.3169E-076
  -3.7169    0.1668E-074
  -3.7094    0.8389E-073
  -3.7019    0.4035E-071
  -3.6943    0.1855E-069
  -3.6868    0.8155E-068
  -3.6793    0.3427E-066
  -3.6718    0.1377E-064
  -3.6643    0.5288E-063
  -3.6568    0.1942E-061
  -3.6493    0.6817E-060
  -3.6418    0.2288E-058
  -3.6343    0.7342E-057
  -3.6268    0.2252E-055
  -3.6193    0.6605E-054
  -3.6118    0.1852E-052
  -3.6043    0.4964E-051
  -3.5968    0.1272E-049
  -3.5893    0.3117E-048
  -3.5818    0.7301E-047
  -3.5743    0.1635E-045
  -3.5668    0.3501E-044
  -3.5593    0.7166E-043
  -3.5518    0.1402E-041
  -3.5443    0.2624E-040
  -3.5368    0.4694E-039
  -3.5293    0.8028E-038
  -3.5218    0.1313E-036
  -3.5143    0.2052E-035
  -3.5068    0.3067E-034
  -3.4992    0.4383E-033
  -3.4917    0.5989E-032
  -3.4842    0.7823E-031
  -3.4767    0.9771E-030
  -3.4692    0.1167E-028
  -3.4617    0.1332E-027
  -3.4542    0.1454E-026
  -3.4467    0.1518E-025
  -3.4392    0.1515E-024
  -3.4317    0.1445E-023
  -3.4242    0.1319E-022
  -3.4167    0.1150E-021
  -3.4092    0.9594E-021
  -3.4017    0.7651E-020
  -3.3942    0.5835E-019
  -3.3867    0.4254E-018
  -3.3792    0.2966E-017
  -3.3717    0.1978E-016
  -3.3642    0.1261E-015
  -3.3567    0.7685E-015
  -3.3492    0.4480E-014
  -3.3417    0.2497E-013
  -3.3342    0.1331E-012
  -3.3267    0.6786E-012
  -3.3192    0.3308E-011
  -3.3117    0.1542E-010
  -3.3042    0.6876E-010
  -3.2966    0.2932E-009
  -3.2891    0.1196E-008
  -3.2816    0.4664E-008
  -3.2741    0.1740E-007
  -3.2666    0.6209E-007
  -3.2591    0.2119E-006
  -3.2516    0.6919E-006
  -3.2441    0.2161E-005
  -3.2366    0.6457E-005
  -3.2291    0.1846E-004
  -3.2216    0.5048E-004
  -3.2141    0.1321E-003
  -3.2066    0.3308E-003
  -3.1991    0.7927E-003
  -3.1916    0.1818E-002
  -3.1841    0.3992E-002
  -3.1766    0.8390E-002
  -3.1691    0.1688E-001
  -3.1616    0.3253E-001
  -3.1541    0.6004E-001
  -3.1466    0.1062E+000
  -3.1391    0.1799E+000
  -3.1316    0.2921E+000
  -3.1241    0.4549E+000
  -3.1166    0.6796E+000
  -3.1091    0.9744E+000
  -3.1016    0.1342E+001
  -3.0940    0.1775E+001
  -3.0865    0.2259E+001
  -3.0790    0.2767E+001
  -3.0715    0.3268E+001
  -3.0640    0.3727E+001
  -3.0565    0.4109E+001
  -3.0490    0.4392E+001
  -3.0415    0.4562E+001
  -3.0340    0.4617E+001
  -3.0265    0.4571E+001
  -3.0190    0.4442E+001
  -3.0115    0.4255E+001
  -3.0040    0.4035E+001
  -2.9965    0.3804E+001
  -2.9890    0.3576E+001
  -2.9815    0.3364E+001
  -2.9740    0.3172E+001
  -2.9665    0.3002E+001
  -2.9590    0.2854E+001
  -2.9515    0.2725E+001
  -2.9440    0.2613E+001
  -2.9365    0.2514E+001
  -2.9290    0.2427E+001
  -2.9215    0.2348E+001
  -2.9140    0.2278E+001
  -2.9065    0.2213E+001
  -2.8989    0.2155E+001
  -2.8914    0.2101E+001
  -2.8839    0.2051E+001
  -2.8764    0.2004E+001
  -2.8689    0.1961E+001
  -2.8614    0.1921E+001
  -2.8539    0.1883E+001
  -2.8464    0.1848E+001
  -2.8389    0.1815E+001
  -2.8314    0.1783E+001
  -2.8239    0.1754E+001
  -2.8164    0.1726E+001
  -2.8089    0.1699E+001
  -2.8014    0.1674E+001
  -2.7939    0.1650E+001
  -2.7864    0.1627E+001
  -2.7789    0.1605E+001
  -2.7714    0.1584E+001
  -2.7639    0.1564E+001
  -2.7564    0.1545E+001
  -2.7489    0.1527E+001
  -2.7414    0.1509E+001
  -2.7339    0.1492E+001
  -2.7264    0.1475E+001
  -2.7189    0.1460E+001
  -2.7114    0.1444E+001
  -2.7039    0.1429E+001
  -2.6963    0.1415E+001
  -2.6888    0.1401E+001
  -2.6813    0.1388E+001
  -2.6738    0.1374E+001
  -2.6663    0.1362E+001
  -2.6588    0.1349E+001
  -2.6513    0.1337E+001
  -2.6438    0.1325E+001
  -2.6363    0.1314E+001
  -2.6288    0.1302E+001
  -2.6213    0.1291E+001
  -2.6138    0.1281E+001
  -2.6063    0.1270E+001
  -2.5988    0.1260E+001
  -2.5913    0.1250E+001
  -2.5838    0.1240E+001
  -2.5763    0.1230E+001
  -2.5688    0.1221E+001
  -2.5613    0.1212E+001
  -2.5538    0.1202E+001
  -2.5463    0.1194E+001
  -2.5388    0.1185E+001
  -2.5313    0.1176E+001
  -2.5238    0.1168E+001
  -2.5163    0.1160E+001
  -2.5088    0.1151E+001
  -2.5013    0.1143E+001
  -2.4937    0.1136E+001
  -2.4862    0.1128E+001
  -2.4787    0.1120E+001
  -2.4712    0.1113E+001
  -2.4637    0.1106E+001
  -2.4562    0.1099E+001
  -2.4487    0.1092E+001
  -2.4412    0.1085E+001
  -2.4337    0.1078E+001
  -2.4262    0.1071E+001
  -2.4187    0.1065E+001
  -2.4112    0.1058E+001
  -2.4037    0.1052E+001
  -2.3962    0.1046E+001
  -2.3887    0.1040E+001
  -2.3812    0.1034E+001
  -2.3737    0.1028E+001
  -2.3662    0.1022E+001
  -2.3587    0.1017E+001
  -2.3512    0.1011E+001
  -2.3437    0.1006E+001
  -2.3362    0.1000E+001
  -2.3287    0.9952E+000
  -2.3212    0.9901E+000
  -2.3137    0.9850E+000
  -2.3062    0.9800E+000
  -2.2986    0.9752E+000
  -2.2911    0.9704E+000
  -2.2836    0.9657E+000
  -2.2761    0.9611E+000
  -2.2686    0.9565E+000
  -2.2611    0.9521E+000
  -2.2536    0.9477E+000
  -2.2461    0.9434E+000
  -2.2386    0.9392E+000
  -2.2311    0.9350E+000
  -2.2236    0.9309E+000
  -2.2161    0.9269E+000
  -2.2086    0.9229E+000
  -2.2011    0.9190E+000
  -2.1936    0.9151E+000
  -2.1861    0.9114E+000
  -2.1786    0.9076E+000
  -2.1711    0.9040E+000
  -2.1636    0.9004E+000
  -2.1561    0.8968E+000
  -2.1486    0.8933E+000
  -2.1411    0.8898E+000
  -2.1336    0.8864E+000
  -2.1261    0.8831E+000
  -2.1186    0.8797E+000
  -2.1111    0.8765E+000
  -2.1036    0.8732E+000
  -2.0960    0.8700E+000
  -2.0885    0.8669E+000
  -2.0810    0.8638E+000
  -2.0735    0.8607E+000
  -2.0660    0.8577E+000
  -2.0585    0.8547E+000
  -2.0510    0.8517E+000
  -2.0435    0.8487E+000
  -2.0360    0.8458E+000
  -2.0285    0.8430E+000
  -2.0210    0.8401E+000
  -2.0135    0.8373E+000
  -2.0060    0.8345E+000
  -1.9985    0.8317E+000
  -1.9910    0.8290E+000
  -1.9835    0.8263E+000
  -1.9760    0.8236E+000
  -1.9685    0.8209E+000
  -1.9610    0.8183E+000
  -1.9535    0.8156E+000
  -1.9460    0.8130E+000
  -1.9385    0.8105E+000
  -1.9310    0.8079E+000
  -1.9235    0.8054E+000
  -1.9160    0.8028E+000
  -1.9085    0.8003E+000
  -1.9010    0.7978E+000
  -1.8934    0.7954E+000
  -1.8859    0.7929E+000
  -1.8784    0.7905E+000
  -1.8709    0.7881E+000
  -1.8634    0.7857E+000
  -1.8559    0.7833E+000
  -1.8484    0.7810E+000
  -1.8409    0.7786E+000
  -1.8334    0.7763E+000
  -1.8259    0.7740E+000
  -1.8184    0.7717E+000
  -1.8109    0.7694E+000
  -1.8034    0.7671E+000
  -1.7959    0.7649E+000
  -1.7884    0.7626E+000
  -1.7809    0.7604E+000
  -1.7734    0.7582E+000
  -1.7659    0.7560E+000
  -1.7584    0.7538E+000
  -1.7509    0.7516E+000
  -1.7434    0.7495E+000
  -1.7359    0.7474E+000
  -1.7284    0.7452E+000
  -1.7209    0.7431E+000
  -1.7134    0.7411E+000
  -1.7059    0.7390E+000
  -1.6983    0.7369E+000
  -1.6908    0.7349E+000
  -1.6833    0.7329E+000
  -1.6758    0.7308E+000
  -1.6683    0.7288E+000
  -1.6608    0.7269E+000
  -1.6533    0.7249E+000
  -1.6458    0.7229E+000
  -1.6383    0.7210E+000
  -1.6308    0.7191E+000
  -1.6233    0.7172E+000
  -1.6158    0.7153E+000
  -1.6083    0.7134E+000
  -1.6008    0.7115E+000
  -1.5933    0.7097E+000
  -1.5858    0.7079E+000
  -1.5783    0.7061E+000
  -1.5708    0.7043E+000
  -1.5633    0.7025E+000
  -1.5558    0.7007E+000
  -1.5483    0.6989E+000
  -1.5408    0.6972E+000
  -1.5333    0.6955E+000
  -1.5258    0.6938E+000
  -1.5183    0.6921E+000
  -1.5108    0.6904E+000
  -1.5033    0.6887E+000
  -1.4957    0.6871E+000
  -1.4882    0.6855E+000
  -1.4807    0.6838E+000
  -1.4732    0.6822E+000
  -1.4657    0.6806E+000
  -1.4582    0.6791E+000
  -1.4507    0.6775E+000
  -1.4432    0.6760E+000
  -1.4357    0.6744E+000
  -1.4282    0.6729E+000
  -1.4207    0.6714E+000
  -1.4132    0.6699E+000
  -1.4057    0.6684E+000
  -1.3982    0.6670E+000
  -1.3907    0.6655E+000
  -1.3832    0.6641E+000
  -1.3757    0.6627E+000
  -1.3682    0.6613E+000
  -1.3607    0.6599E+000
  -1.3532    0.6585E+000
  -1.3457    0.6571E+000
  -1.3382    0.6557E+000
  -1.3307    0.6544E+000
  -1.3232    0.6531E+000
  -1.3157    0.6517E+000
  -1.3082    0.6504E+000
  -1.3007    0.6491E+000
  -1.2931    0.6478E+000
  -1.2856    0.6466E+000
  -1.2781    0.6453E+000
  -1.2706    0.6440E+000
  -1.2631    0.6428E+000
  -1.2556    0.6415E+000
  -1.2481    0.6403E+000
  -1.2406    0.6391E+000
  -1.2331    0.6379E+000
  -1.2256    0.6367E+000
  -1.2181    0.6355E+000
  -1.2106    0.6343E+000
  -1.2031    0.6332E+000
  -1.1956    0.6320E+000
  -1.1881    0.6308E+000
  -1.1806    0.6297E+000
  -1.1731    0.6286E+000
  -1.1656    0.6274E+000
  -1.1581    0.6263E+000
  -1.1506    0.6252E+000
  -1.1431    0.6241E+000
  -1.1356    0.6230E+000
  -1.1281    0.6219E+000
  -1.1206    0.6208E+000
  -1.1131    0.6197E+000
  -1.1056    0.6187E+000
  -1.0980    0.6176E+000
  -1.0905    0.6165E+000
  -1.0830    0.6155E+000
  -1.0755    0.6144E+000
  -1.0680    0.6134E+000
  -1.0605    0.6123E+000
  -1.0530    0.6113E+000
  -1.0455    0.6103E+000
  -1.0380    0.6093E+000
  -1.0305    0.6082E+000
  -1.0230    0.6072E+000
  -1.0155    0.6062E+000
  -1.0080    0.6052E+000
  -1.0005    0.6042E+000
  -0.9930    0.6032E+000
  -0.9855    0.6022E+000
  -0.9780    0.6012E+000
  -0.9705    0.6002E+000
  -0.9630    0.5993E+000
  -0.9555    0.5983E+000
  -0.9480    0.5973E+000
  -0.9405    0.5963E+000
  -0.9330    0.5954E+000
  -0.9255    0.5944E+000
  -0.9180    0.5934E+000
  -0.9105    0.5925E+000
  -0.9030    0.5915E+000
  -0.8954    0.5906E+000
  -0.8879    0.5896E+000
  -0.8804    0.5887E+000
  -0.8729    0.5877E+000
  -0.8654    0.5868E+000
  -0.8579    0.5858E+000
  -0.8504    0.5849E+000
  -0.8429    0.5840E+000
  -0.8354    0.5830E+000
  -0.8279    0.5821E+000
  -0.8204    0.5812E+000
  -0.8129    0.5803E+000
  -0.8054    0.5793E+000
  -0.7979    0.5784E+000
  -0.7904    0.5775E+000
  -0.7829    0.5766E+000
  -0.7754    0.5757E+000
  -0.7679    0.5748E+000
  -0.7604    0.5739E+000
  -0.7529    0.5729E+000
  -0.7454    0.5720E+000
  -0.7379    0.5711E+000
  -0.7304    0.5703E+000
  -0.7229    0.5694E+000
  -0.7154    0.5685E+000
  -0.7079    0.5676E+000
  -0.7004    0.5667E+000
  -0.6928    0.5658E+000
  -0.6853    0.5649E+000
  -0.6778    0.5640E+000
  -0.6703    0.5632E+000
  -0.6628    0.5623E+000
  -0.6553    0.5614E+000
  -0.6478    0.5606E+000
  -0.6403    0.5597E+000
  -0.6328    0.5588E+000
  -0.6253    0.5580E+000
  -0.6178    0.5571E+000
  -0.6103    0.5563E+000
  -0.6028    0.5554E+000
  -0.5953    0.5546E+000
  -0.5878    0.5537E+000
  -0.5803    0.5529E+000
  -0.5728    0.5521E+000
  -0.5653    0.5512E+000
  -0.5578    0.5504E+000
  -0.5503    0.5496E+000
  -0.5428    0.5487E+000
  -0.5353    0.5479E+000
  -0.5278    0.5471E+000
  -0.5203    0.5463E+000
  -0.5128    0.5455E+000
  -0.5053    0.5447E+000
  -0.4977    0.5439E+000
  -0.4902    0.5431E+000
  -0.4827    0.5423E+000
  -0.4752    0.5415E+000
  -0.4677    0.5407E+000
  -0.4602    0.5399E+000
  -0.4527    0.5392E+000
  -0.4452    0.5384E+000
  -0.4377    0.5376E+000
  -0.4302    0.5369E+000
  -0.4227    0.5361E+000
  -0.4152    0.5353E+000
  -0.4077    0.5346E+000
  -0.4002    0.5338E+000
  -0.3927    0.5331E+000
  -0.3852    0.5323E+000
  -0.3777    0.5316E+000
  -0.3702    0.5309E+000
  -0.3627    0.5302E+000
  -0.3552    0.5294E+000
  -0.3477    0.5287E+000
  -0.3402    0.5280E+000
  -0.3327    0.5273E+000
  -0.3252    0.5266E+000
  -0.3177    0.5259E+000
  -0.3102    0.5252E+000
  -0.3027    0.5245E+000
  -0.2951    0.5238E+000
  -0.2876    0.5231E+000
  -0.2801    0.5225E+000
  -0.2726    0.5218E+000
  -0.2651    0.5211E+000
  -0.2576    0.5204E+000
  -0.2501    0.5198E+000
  -0.2426    0.5191E+000
  -0.2351    0.5185E+000
  -0.2276    0.5178E+000
  -0.2201    0.5172E+000
  -0.2126    0.5165E+000
  -0.2051    0.5159E+000
  -0.1976    0.5153E+000
  -0.1901    0.5147E+000
  -0.1826    0.5140E+000
  -0.1751    0.5134E+000
  -0.1676    0.5128E+000
  -0.1601    0.5122E+000
  -0.1526    0.5116E+000
  -0.1451    0.5110E+000
  -0.1376    0.5104E+000
  -0.1301    0.5098E+000
  -0.1226    0.5092E+000
  -0.1151    0.5086E+000
  -0.1076    0.5080E+000
  -0.1001    0.5075E+000
  -0.0925    0.5069E+000
  -0.0850    0.5063E+000
  -0.0775    0.5057E+000
  -0.0700    0.5052E+000
  -0.0625    0.5046E+000
  -0.0550    0.5041E+000
  -0.0475    0.5035E+000
  -0.0400    0.5030E+000
  -0.0325    0.5024E+000
  -0.0250    0.5019E+000
  -0.0175    0.5013E+000
  -0.0100    0.5008E+000
  -0.0025    0.5003E+000
   0.0050    0.4997E+000
   0.0125    0.4992E+000
   0.0200    0.4987E+000
   0.0275    0.4982E+000
   0.0350    0.4977E+000
   0.0425    0.4972E+000
   0.0500    0.4966E+000
   0.0575    0.4961E+000
   0.0650    0.4956E+000
   0.0725    0.4951E+000
   0.0800    0.4946E+000
   0.0875    0.4941E+000
   0.0950    0.4936E+000
   0.1026    0.4931E+000
   0.1101    0.4927E+000
   0.1176    0.4922E+000
   0.1251    0.4917E+000
   0.1326    0.4912E+000
   0.1401    0.4907E+000
   0.1476    0.4902E+000
   0.1551    0.4898E+000
   0.1626    0.4893E+000
   0.1701    0.4888E+000
   0.1776    0.4883E+000
   0.1851    0.4879E+000
   0.1926    0.4874E+000
   0.2001    0.4869E+000
   0.2076    0.4865E+000
   0.2151    0.4860E+000
   0.2226    0.4856E+000
   0.2301    0.4851E+000
   0.2376    0.4846E+000
   0.2451    0.4842E+000
   0.2526    0.4837E+000
   0.2601    0.4833E+000
   0.2676    0.4828E+000
   0.2751    0.4824E+000
   0.2826    0.4819E+000
   0.2901    0.4815E+000
   0.2976    0.4810E+000
   0.3052    0.4806E+000
   0.3127    0.4801E+000
   0.3202    0.4797E+000
   0.3277    0.4792E+000
   0.3352    0.4788E+000
   0.3427    0.4784E+000
   0.3502    0.4779E+000
   0.3577    0.4775E+000
   0.3652    0.4770E+000
   0.3727    0.4766E+000
   0.3802    0.4762E+000
   0.3877    0.4757E+000
   0.3952    0.4753E+000
   0.4027    0.4749E+000
   0.4102    0.4744E+000
   0.4177    0.4740E+000
   0.4252    0.4736E+000
   0.4327    0.4731E+000
   0.4402    0.4727E+000
   0.4477    0.4723E+000
   0.4552    0.4718E+000
   0.4627    0.4714E+000
   0.4702    0.4710E+000
   0.4777    0.4705E+000
   0.4852    0.4701E+000
   0.4927    0.4697E+000
   0.5003    0.4693E+000
   0.5078    0.4688E+000
   0.5153    0.4684E+000
   0.5228    0.4680E+000
   0.5303    0.4676E+000
   0.5378    0.4671E+000
   0.5453    0.4667E+000
   0.5528    0.4663E+000
   0.5603    0.4659E+000
   0.5678    0.4654E+000
   0.5753    0.4650E+000
   0.5828    0.4646E+000
   0.5903    0.4642E+000
   0.5978    0.4637E+000
   0.6053    0.4633E+000
   0.6128    0.4629E+000
   0.6203    0.4625E+000
   0.6278    0.4621E+000
   0.6353    0.4616E+000
   0.6428    0.4612E+000
   0.6503    0.4608E+000
   0.6578    0.4604E+000
   0.6653    0.4600E+000
   0.6728    0.4595E+000
   0.6803    0.4591E+000
   0.6878    0.4587E+000
   0.6953    0.4583E+000
   0.7029    0.4579E+000
   0.7104    0.4575E+000
   0.7179    0.4571E+000
   0.7254    0.4567E+000
   0.7329    0.4562E+000
   0.7404    0.4558E+000
   0.7479    0.4554E+000
   0.7554    0.4550E+000
   0.7629    0.4546E+000
   0.7704    0.4542E+000
   0.7779    0.4538E+000
   0.7854    0.4534E+000
   0.7929    0.4530E+000
   0.8004    0.4526E+000
   0.8079    0.4522E+000
   0.8154    0.4518E+000
   0.8229    0.4514E+000
   0.8304    0.4510E+000
   0.8379    0.4506E+000
   0.8454    0.4502E+000
   0.8529    0.4498E+000
   0.8604    0.4494E+000
   0.8679    0.4490E+000
   0.8754    0.4486E+000
   0.8829    0.4482E+000
   0.8904    0.4478E+000
   0.8979    0.4475E+000
   0.9055    0.4471E+000
   0.9130    0.4467E+000
   0.9205    0.4463E+000
   0.9280    0.4459E+000
   0.9355    0.4455E+000
   0.9430    0.4452E+000
   0.9505    0.4448E+000
   0.9580    0.4444E+000
   0.9655    0.4440E+000
   0.9730    0.4437E+000
   0.9805    0.4433E+000
   0.9880    0.4429E+000
