 # E (eV)   ldos(E)
 -20.0000    0.0000E+000
 -19.9791    0.0000E+000
 -19.9583    0.0000E+000
 -19.9374    0.0000E+000
 -19.9166    0.0000E+000
 -19.8957    0.0000E+000
 -19.8749    0.0000E+000
 -19.8540    0.0000E+000
 -19.8332    0.0000E+000
 -19.8123    0.0000E+000
 -19.7915    0.0000E+000
 -19.7706    0.0000E+000
 -19.7498    0.0000E+000
 -19.7289    0.0000E+000
 -19.7081    0.0000E+000
 -19.6872    0.0000E+000
 -19.6664    0.0000E+000
 -19.6455    0.0000E+000
 -19.6247    0.0000E+000
 -19.6038    0.0000E+000
 -19.5830    0.0000E+000
 -19.5621    0.0000E+000
 -19.5413    0.0000E+000
 -19.5204    0.0000E+000
 -19.4996    0.0000E+000
 -19.4787    0.0000E+000
 -19.4579    0.0000E+000
 -19.4370    0.0000E+000
 -19.4162    0.0000E+000
 -19.3953    0.0000E+000
 -19.3745    0.0000E+000
 -19.3536    0.0000E+000
 -19.3328    0.0000E+000
 -19.3119    0.0000E+000
 -19.2911    0.0000E+000
 -19.2702    0.0000E+000
 -19.2494    0.0000E+000
 -19.2285    0.0000E+000
 -19.2077    0.0000E+000
 -19.1868    0.0000E+000
 -19.1660    0.0000E+000
 -19.1451    0.0000E+000
 -19.1243    0.0000E+000
 -19.1034    0.0000E+000
 -19.0826    0.0000E+000
 -19.0617    0.0000E+000
 -19.0409    0.0000E+000
 -19.0200    0.0000E+000
 -18.9992    0.0000E+000
 -18.9783    0.0000E+000
 -18.9575    0.0000E+000
 -18.9366    0.0000E+000
 -18.9158    0.0000E+000
 -18.8949    0.0000E+000
 -18.8741    0.0000E+000
 -18.8532    0.0000E+000
 -18.8324    0.0000E+000
 -18.8115    0.0000E+000
 -18.7907    0.0000E+000
 -18.7698    0.0000E+000
 -18.7490    0.0000E+000
 -18.7281    0.0000E+000
 -18.7073    0.0000E+000
 -18.6864    0.0000E+000
 -18.6656    0.0000E+000
 -18.6447    0.0000E+000
 -18.6239    0.0000E+000
 -18.6030    0.0000E+000
 -18.5822    0.0000E+000
 -18.5613    0.0000E+000
 -18.5405    0.0000E+000
 -18.5196    0.0000E+000
 -18.4987    0.0000E+000
 -18.4779    0.0000E+000
 -18.4570    0.0000E+000
 -18.4362    0.0000E+000
 -18.4153    0.0000E+000
 -18.3945    0.0000E+000
 -18.3736    0.0000E+000
 -18.3528    0.0000E+000
 -18.3319    0.0000E+000
 -18.3111    0.0000E+000
 -18.2902    0.0000E+000
 -18.2694    0.0000E+000
 -18.2485    0.0000E+000
 -18.2277    0.0000E+000
 -18.2068    0.0000E+000
 -18.1860    0.0000E+000
 -18.1651    0.0000E+000
 -18.1443    0.0000E+000
 -18.1234    0.0000E+000
 -18.1026    0.0000E+000
 -18.0817    0.0000E+000
 -18.0609    0.0000E+000
 -18.0400    0.0000E+000
 -18.0192    0.0000E+000
 -17.9983    0.0000E+000
 -17.9775    0.0000E+000
 -17.9566    0.0000E+000
 -17.9358    0.0000E+000
 -17.9149    0.0000E+000
 -17.8941    0.0000E+000
 -17.8732    0.0000E+000
 -17.8524    0.0000E+000
 -17.8315    0.0000E+000
 -17.8107    0.0000E+000
 -17.7898    0.0000E+000
 -17.7690    0.0000E+000
 -17.7481    0.0000E+000
 -17.7273    0.0000E+000
 -17.7064    0.0000E+000
 -17.6856    0.0000E+000
 -17.6647    0.0000E+000
 -17.6439    0.0000E+000
 -17.6230    0.0000E+000
 -17.6022    0.0000E+000
 -17.5813    0.0000E+000
 -17.5605    0.0000E+000
 -17.5396    0.0000E+000
 -17.5188    0.0000E+000
 -17.4979    0.0000E+000
 -17.4771    0.0000E+000
 -17.4562    0.0000E+000
 -17.4354    0.0000E+000
 -17.4145    0.0000E+000
 -17.3937    0.0000E+000
 -17.3728    0.0000E+000
 -17.3520    0.0000E+000
 -17.3311    0.0000E+000
 -17.3103    0.0000E+000
 -17.2894    0.0000E+000
 -17.2686    0.0000E+000
 -17.2477    0.0000E+000
 -17.2269    0.0000E+000
 -17.2060    0.0000E+000
 -17.1852    0.0000E+000
 -17.1643    0.0000E+000
 -17.1435    0.0000E+000
 -17.1226    0.0000E+000
 -17.1018    0.0000E+000
 -17.0809    0.0000E+000
 -17.0601    0.0000E+000
 -17.0392    0.0000E+000
 -17.0183    0.0000E+000
 -16.9975    0.0000E+000
 -16.9766    0.0000E+000
 -16.9558    0.0000E+000
 -16.9349    0.0000E+000
 -16.9141    0.0000E+000
 -16.8932    0.0000E+000
 -16.8724    0.0000E+000
 -16.8515    0.0000E+000
 -16.8307    0.0000E+000
 -16.8098    0.0000E+000
 -16.7890    0.0000E+000
 -16.7681    0.0000E+000
 -16.7473    0.0000E+000
 -16.7264    0.0000E+000
 -16.7056    0.0000E+000
 -16.6847    0.0000E+000
 -16.6639    0.0000E+000
 -16.6430    0.0000E+000
 -16.6222    0.0000E+000
 -16.6013    0.0000E+000
 -16.5805    0.0000E+000
 -16.5596    0.0000E+000
 -16.5388    0.0000E+000
 -16.5179    0.0000E+000
 -16.4971    0.0000E+000
 -16.4762    0.0000E+000
 -16.4554    0.0000E+000
 -16.4345    0.0000E+000
 -16.4137    0.0000E+000
 -16.3928    0.0000E+000
 -16.3720    0.0000E+000
 -16.3511    0.0000E+000
 -16.3303    0.0000E+000
 -16.3094    0.0000E+000
 -16.2886    0.0000E+000
 -16.2677    0.0000E+000
 -16.2469    0.0000E+000
 -16.2260    0.0000E+000
 -16.2052    0.0000E+000
 -16.1843    0.0000E+000
 -16.1635    0.0000E+000
 -16.1426    0.0000E+000
 -16.1218    0.0000E+000
 -16.1009    0.0000E+000
 -16.0801    0.0000E+000
 -16.0592    0.0000E+000
 -16.0384    0.0000E+000
 -16.0175    0.0000E+000
 -15.9967    0.0000E+000
 -15.9758    0.0000E+000
 -15.9550    0.0000E+000
 -15.9341    0.0000E+000
 -15.9133    0.0000E+000
 -15.8924    0.0000E+000
 -15.8716    0.0000E+000
 -15.8507    0.0000E+000
 -15.8299    0.0000E+000
 -15.8090    0.0000E+000
 -15.7882    0.0000E+000
 -15.7673    0.0000E+000
 -15.7465    0.0000E+000
 -15.7256    0.0000E+000
 -15.7048    0.0000E+000
 -15.6839    0.0000E+000
 -15.6631    0.0000E+000
 -15.6422    0.0000E+000
 -15.6214    0.0000E+000
 -15.6005    0.0000E+000
 -15.5796    0.0000E+000
 -15.5588    0.0000E+000
 -15.5379    0.0000E+000
 -15.5171    0.0000E+000
 -15.4962    0.0000E+000
 -15.4754    0.0000E+000
 -15.4545    0.0000E+000
 -15.4337    0.0000E+000
 -15.4128    0.0000E+000
 -15.3920    0.0000E+000
 -15.3711    0.0000E+000
 -15.3503    0.0000E+000
 -15.3294    0.0000E+000
 -15.3086    0.0000E+000
 -15.2877    0.0000E+000
 -15.2669    0.0000E+000
 -15.2460    0.0000E+000
 -15.2252    0.0000E+000
 -15.2043    0.0000E+000
 -15.1835    0.0000E+000
 -15.1626    0.0000E+000
 -15.1418    0.0000E+000
 -15.1209    0.0000E+000
 -15.1001    0.0000E+000
 -15.0792    0.0000E+000
 -15.0584    0.0000E+000
 -15.0375    0.0000E+000
 -15.0167    0.0000E+000
 -14.9958    0.0000E+000
 -14.9750    0.0000E+000
 -14.9541    0.0000E+000
 -14.9333    0.0000E+000
 -14.9124    0.0000E+000
 -14.8916    0.0000E+000
 -14.8707    0.0000E+000
 -14.8499    0.0000E+000
 -14.8290    0.0000E+000
 -14.8082    0.0000E+000
 -14.7873    0.0000E+000
 -14.7665    0.0000E+000
 -14.7456    0.0000E+000
 -14.7248    0.0000E+000
 -14.7039    0.0000E+000
 -14.6831    0.0000E+000
 -14.6622    0.0000E+000
 -14.6414    0.0000E+000
 -14.6205    0.0000E+000
 -14.5997    0.0000E+000
 -14.5788    0.0000E+000
 -14.5580    0.0000E+000
 -14.5371    0.0000E+000
 -14.5163    0.0000E+000
 -14.4954    0.0000E+000
 -14.4746    0.0000E+000
 -14.4537    0.0000E+000
 -14.4329    0.0000E+000
 -14.4120    0.0000E+000
 -14.3912    0.0000E+000
 -14.3703    0.0000E+000
 -14.3495    0.0000E+000
 -14.3286    0.0000E+000
 -14.3078    0.0000E+000
 -14.2869    0.0000E+000
 -14.2661    0.0000E+000
 -14.2452    0.0000E+000
 -14.2244    0.0000E+000
 -14.2035    0.0000E+000
 -14.1827    0.0000E+000
 -14.1618    0.0000E+000
 -14.1410    0.0000E+000
 -14.1201    0.0000E+000
 -14.0992    0.0000E+000
 -14.0784    0.0000E+000
 -14.0575    0.0000E+000
 -14.0367    0.0000E+000
 -14.0158    0.0000E+000
 -13.9950    0.0000E+000
 -13.9741    0.0000E+000
 -13.9533    0.0000E+000
 -13.9324    0.0000E+000
 -13.9116    0.0000E+000
 -13.8907    0.0000E+000
 -13.8699    0.0000E+000
 -13.8490    0.0000E+000
 -13.8282    0.0000E+000
 -13.8073    0.0000E+000
 -13.7865    0.0000E+000
 -13.7656    0.0000E+000
 -13.7448    0.0000E+000
 -13.7239    0.0000E+000
 -13.7031    0.0000E+000
 -13.6822    0.0000E+000
 -13.6614    0.0000E+000
 -13.6405    0.0000E+000
 -13.6197    0.0000E+000
 -13.5988    0.0000E+000
 -13.5780    0.0000E+000
 -13.5571    0.0000E+000
 -13.5363    0.0000E+000
 -13.5154    0.0000E+000
 -13.4946    0.0000E+000
 -13.4737    0.0000E+000
 -13.4529    0.0000E+000
 -13.4320    0.0000E+000
 -13.4112    0.0000E+000
 -13.3903    0.0000E+000
 -13.3695    0.0000E+000
 -13.3486    0.0000E+000
 -13.3278    0.0000E+000
 -13.3069    0.0000E+000
 -13.2861    0.0000E+000
 -13.2652    0.0000E+000
 -13.2444    0.0000E+000
 -13.2235    0.0000E+000
 -13.2027    0.0000E+000
 -13.1818    0.0000E+000
 -13.1610    0.0000E+000
 -13.1401    0.0000E+000
 -13.1193    0.0000E+000
 -13.0984    0.0000E+000
 -13.0776    0.0000E+000
 -13.0567    0.0000E+000
 -13.0359    0.0000E+000
 -13.0150    0.0000E+000
 -12.9942    0.0000E+000
 -12.9733    0.0000E+000
 -12.9525    0.0000E+000
 -12.9316    0.0000E+000
 -12.9108    0.0000E+000
 -12.8899    0.0000E+000
 -12.8691    0.0000E+000
 -12.8482    0.0000E+000
 -12.8274    0.0000E+000
 -12.8065    0.0000E+000
 -12.7857    0.0000E+000
 -12.7648    0.0000E+000
 -12.7440    0.0000E+000
 -12.7231    0.0000E+000
 -12.7023    0.0000E+000
 -12.6814    0.0000E+000
 -12.6606    0.0000E+000
 -12.6397    0.0000E+000
 -12.6188    0.0000E+000
 -12.5980    0.0000E+000
 -12.5771    0.0000E+000
 -12.5563    0.0000E+000
 -12.5354    0.0000E+000
 -12.5146    0.0000E+000
 -12.4937    0.0000E+000
 -12.4729    0.0000E+000
 -12.4520    0.0000E+000
 -12.4312    0.0000E+000
 -12.4103    0.0000E+000
 -12.3895    0.0000E+000
 -12.3686    0.0000E+000
 -12.3478    0.0000E+000
 -12.3269    0.0000E+000
 -12.3061    0.0000E+000
 -12.2852    0.0000E+000
 -12.2644    0.0000E+000
 -12.2435    0.0000E+000
 -12.2227    0.0000E+000
 -12.2018    0.0000E+000
 -12.1810    0.0000E+000
 -12.1601    0.0000E+000
 -12.1393    0.0000E+000
 -12.1184    0.0000E+000
 -12.0976    0.0000E+000
 -12.0767    0.0000E+000
 -12.0559    0.0000E+000
 -12.0350    0.0000E+000
 -12.0142    0.0000E+000
 -11.9933    0.0000E+000
 -11.9725    0.0000E+000
 -11.9516    0.0000E+000
 -11.9308    0.0000E+000
 -11.9099    0.0000E+000
 -11.8891    0.0000E+000
 -11.8682    0.0000E+000
 -11.8474    0.0000E+000
 -11.8265    0.0000E+000
 -11.8057    0.0000E+000
 -11.7848    0.0000E+000
 -11.7640    0.0000E+000
 -11.7431    0.0000E+000
 -11.7223    0.0000E+000
 -11.7014    0.0000E+000
 -11.6806    0.0000E+000
 -11.6597    0.0000E+000
 -11.6389    0.0000E+000
 -11.6180    0.0000E+000
 -11.5972    0.0000E+000
 -11.5763    0.0000E+000
 -11.5555    0.0000E+000
 -11.5346    0.0000E+000
 -11.5138    0.0000E+000
 -11.4929    0.0000E+000
 -11.4721    0.0000E+000
 -11.4512    0.0000E+000
 -11.4304    0.0000E+000
 -11.4095    0.0000E+000
 -11.3887    0.0000E+000
 -11.3678    0.0000E+000
 -11.3470    0.0000E+000
 -11.3261    0.0000E+000
 -11.3053    0.0000E+000
 -11.2844    0.0000E+000
 -11.2636    0.0000E+000
 -11.2427    0.0000E+000
 -11.2219    0.0000E+000
 -11.2010    0.0000E+000
 -11.1802    0.0000E+000
 -11.1593    0.0000E+000
 -11.1384    0.0000E+000
 -11.1176    0.0000E+000
 -11.0967    0.0000E+000
 -11.0759    0.0000E+000
 -11.0550    0.0000E+000
 -11.0342    0.0000E+000
 -11.0133    0.0000E+000
 -10.9925    0.0000E+000
 -10.9716    0.0000E+000
 -10.9508    0.0000E+000
 -10.9299    0.0000E+000
 -10.9091    0.0000E+000
 -10.8882    0.0000E+000
 -10.8674    0.0000E+000
 -10.8465    0.0000E+000
 -10.8257    0.0000E+000
 -10.8048    0.0000E+000
 -10.7840    0.0000E+000
 -10.7631    0.0000E+000
 -10.7423    0.0000E+000
 -10.7214    0.0000E+000
 -10.7006    0.0000E+000
 -10.6797    0.0000E+000
 -10.6589    0.0000E+000
 -10.6380    0.0000E+000
 -10.6172    0.0000E+000
 -10.5963    0.0000E+000
 -10.5755    0.0000E+000
 -10.5546    0.0000E+000
 -10.5338    0.0000E+000
 -10.5129    0.0000E+000
 -10.4921    0.0000E+000
 -10.4712    0.0000E+000
 -10.4504    0.0000E+000
 -10.4295    0.0000E+000
 -10.4087    0.0000E+000
 -10.3878    0.0000E+000
 -10.3670    0.0000E+000
 -10.3461    0.0000E+000
 -10.3253    0.0000E+000
 -10.3044    0.0000E+000
 -10.2836    0.0000E+000
 -10.2627    0.0000E+000
 -10.2419    0.0000E+000
 -10.2210    0.0000E+000
 -10.2002    0.0000E+000
 -10.1793    0.0000E+000
 -10.1585    0.0000E+000
 -10.1376    0.0000E+000
 -10.1168    0.0000E+000
 -10.0959    0.0000E+000
 -10.0751    0.0000E+000
 -10.0542    0.0000E+000
 -10.0334    0.0000E+000
 -10.0125    0.0000E+000
  -9.9917    0.0000E+000
  -9.9708    0.0000E+000
  -9.9500    0.0000E+000
  -9.9291    0.0000E+000
  -9.9083    0.0000E+000
  -9.8874    0.0000E+000
  -9.8666    0.0000E+000
  -9.8457    0.0000E+000
  -9.8249    0.0000E+000
  -9.8040    0.0000E+000
  -9.7832    0.0000E+000
  -9.7623    0.0000E+000
  -9.7415    0.0000E+000
  -9.7206    0.0000E+000
  -9.6997    0.0000E+000
  -9.6789    0.0000E+000
  -9.6580    0.0000E+000
  -9.6372    0.0000E+000
  -9.6163    0.0000E+000
  -9.5955    0.0000E+000
  -9.5746    0.0000E+000
  -9.5538    0.0000E+000
  -9.5329    0.0000E+000
  -9.5121    0.0000E+000
  -9.4912    0.0000E+000
  -9.4704    0.0000E+000
  -9.4495    0.0000E+000
  -9.4287    0.0000E+000
  -9.4078    0.0000E+000
  -9.3870    0.0000E+000
  -9.3661    0.0000E+000
  -9.3453    0.0000E+000
  -9.3244    0.0000E+000
  -9.3036    0.0000E+000
  -9.2827    0.0000E+000
  -9.2619    0.0000E+000
  -9.2410    0.0000E+000
  -9.2202    0.0000E+000
  -9.1993    0.0000E+000
  -9.1785    0.0000E+000
  -9.1576    0.0000E+000
  -9.1368    0.0000E+000
  -9.1159    0.0000E+000
  -9.0951    0.0000E+000
  -9.0742    0.0000E+000
  -9.0534    0.0000E+000
  -9.0325    0.0000E+000
  -9.0117    0.0000E+000
  -8.9908    0.0000E+000
  -8.9700    0.0000E+000
  -8.9491    0.0000E+000
  -8.9283    0.0000E+000
  -8.9074    0.0000E+000
  -8.8866    0.0000E+000
  -8.8657    0.0000E+000
  -8.8449    0.0000E+000
  -8.8240    0.0000E+000
  -8.8032    0.0000E+000
  -8.7823    0.0000E+000
  -8.7615    0.0000E+000
  -8.7406    0.0000E+000
  -8.7198    0.0000E+000
  -8.6989    0.0000E+000
  -8.6781    0.0000E+000
  -8.6572    0.0000E+000
  -8.6364    0.0000E+000
  -8.6155    0.0000E+000
  -8.5947    0.0000E+000
  -8.5738    0.0000E+000
  -8.5530    0.0000E+000
  -8.5321    0.0000E+000
  -8.5113    0.0000E+000
  -8.4904    0.0000E+000
  -8.4696    0.0000E+000
  -8.4487    0.0000E+000
  -8.4279    0.0000E+000
  -8.4070    0.0000E+000
  -8.3862    0.0000E+000
  -8.3653    0.0000E+000
  -8.3445    0.0000E+000
  -8.3236    0.0000E+000
  -8.3028    0.0000E+000
  -8.2819    0.0000E+000
  -8.2611    0.0000E+000
  -8.2402    0.0000E+000
  -8.2193    0.0000E+000
  -8.1985    0.0000E+000
  -8.1776    0.0000E+000
  -8.1568    0.0000E+000
  -8.1359    0.0000E+000
  -8.1151    0.0000E+000
  -8.0942    0.0000E+000
  -8.0734    0.0000E+000
  -8.0525    0.0000E+000
  -8.0317    0.0000E+000
  -8.0108    0.0000E+000
  -7.9900    0.0000E+000
  -7.9691    0.0000E+000
  -7.9483    0.0000E+000
  -7.9274    0.0000E+000
  -7.9066    0.0000E+000
  -7.8857    0.0000E+000
  -7.8649    0.0000E+000
  -7.8440    0.0000E+000
  -7.8232    0.0000E+000
  -7.8023    0.0000E+000
  -7.7815    0.0000E+000
  -7.7606    0.0000E+000
  -7.7398    0.0000E+000
  -7.7189    0.0000E+000
  -7.6981    0.0000E+000
  -7.6772    0.0000E+000
  -7.6564    0.0000E+000
  -7.6355    0.0000E+000
  -7.6147    0.0000E+000
  -7.5938    0.0000E+000
  -7.5730    0.0000E+000
  -7.5521    0.0000E+000
  -7.5313    0.0000E+000
  -7.5104    0.0000E+000
  -7.4896    0.0000E+000
  -7.4687    0.0000E+000
  -7.4479    0.0000E+000
  -7.4270    0.0000E+000
  -7.4062    0.0000E+000
  -7.3853    0.0000E+000
  -7.3645    0.0000E+000
  -7.3436    0.0000E+000
  -7.3228    0.0000E+000
  -7.3019    0.0000E+000
  -7.2811    0.0000E+000
  -7.2602    0.0000E+000
  -7.2394    0.0000E+000
  -7.2185    0.0000E+000
  -7.1977    0.0000E+000
  -7.1768    0.0000E+000
  -7.1560    0.0000E+000
  -7.1351    0.0000E+000
  -7.1143    0.0000E+000
  -7.0934    0.0000E+000
  -7.0726    0.0000E+000
  -7.0517    0.0000E+000
  -7.0309    0.0000E+000
  -7.0100    0.0000E+000
  -6.9892    0.0000E+000
  -6.9683    0.0000E+000
  -6.9475    0.0000E+000
  -6.9266    0.0000E+000
  -6.9058    0.0000E+000
  -6.8849    0.6514E-302
  -6.8641    0.1921E-292
  -6.8432    0.4003E-283
  -6.8224    0.5889E-274
  -6.8015    0.6121E-265
  -6.7807    0.4493E-256
  -6.7598    0.2330E-247
  -6.7389    0.8532E-239
  -6.7181    0.2207E-230
  -6.6972    0.4033E-222
  -6.6764    0.5204E-214
  -6.6555    0.4744E-206
  -6.6347    0.3055E-198
  -6.6138    0.1389E-190
  -6.5930    0.4464E-183
  -6.5721    0.1013E-175
  -6.5513    0.1624E-168
  -6.5304    0.1838E-161
  -6.5096    0.1470E-154
  -6.4887    0.8306E-148
  -6.4679    0.3315E-141
  -6.4470    0.9344E-135
  -6.4262    0.1861E-128
  -6.4053    0.2617E-122
  -6.3845    0.2601E-116
  -6.3636    0.1826E-110
  -6.3428    0.9054E-105
  -6.3219    0.3172E-099
  -6.3011    0.7850E-094
  -6.2802    0.1372E-088
  -6.2594    0.1695E-083
  -6.2385    0.1479E-078
  -6.2177    0.9121E-074
  -6.1968    0.3973E-069
  -6.1760    0.1223E-064
  -6.1551    0.2659E-060
  -6.1343    0.4086E-056
  -6.1134    0.4436E-052
  -6.0926    0.3403E-048
  -6.0717    0.1845E-044
  -6.0509    0.7068E-041
  -6.0300    0.1914E-037
  -6.0092    0.3663E-034
  -5.9883    0.4955E-031
  -5.9675    0.4738E-028
  -5.9466    0.3203E-025
  -5.9258    0.1531E-022
  -5.9049    0.5174E-020
  -5.8841    0.1237E-017
  -5.8632    0.2091E-015
  -5.8424    0.2501E-013
  -5.8215    0.2117E-011
  -5.8007    0.1268E-009
  -5.7798    0.5383E-008
  -5.7590    0.1618E-006
  -5.7381    0.3450E-005
  -5.7173    0.5220E-004
  -5.6964    0.5610E-003
  -5.6756    0.4292E-002
  -5.6547    0.2342E-001
  -5.6339    0.9151E-001
  -5.6130    0.2575E+000
  -5.5922    0.5271E+000
  -5.5713    0.7977E+000
  -5.5505    0.9201E+000
  -5.5296    0.8533E+000
  -5.5088    0.6934E+000
  -5.4879    0.5477E+000
  -5.4671    0.4524E+000
  -5.4462    0.3952E+000
  -5.4254    0.3584E+000
  -5.4045    0.3318E+000
  -5.3837    0.3112E+000
  -5.3628    0.2944E+000
  -5.3420    0.2803E+000
  -5.3211    0.2682E+000
  -5.3003    0.2577E+000
  -5.2794    0.2485E+000
  -5.2585    0.2403E+000
  -5.2377    0.2329E+000
  -5.2168    0.2262E+000
  -5.1960    0.2201E+000
  -5.1751    0.2145E+000
  -5.1543    0.2094E+000
  -5.1334    0.2046E+000
  -5.1126    0.2002E+000
  -5.0917    0.1961E+000
  -5.0709    0.1922E+000
  -5.0500    0.1886E+000
  -5.0292    0.1852E+000
  -5.0083    0.1820E+000
  -4.9875    0.1789E+000
  -4.9666    0.1760E+000
  -4.9458    0.1733E+000
  -4.9249    0.1707E+000
  -4.9041    0.1683E+000
  -4.8832    0.1659E+000
  -4.8624    0.1636E+000
  -4.8415    0.1615E+000
  -4.8207    0.1594E+000
  -4.7998    0.1575E+000
  -4.7790    0.1556E+000
  -4.7581    0.1537E+000
  -4.7373    0.1520E+000
  -4.7164    0.1503E+000
  -4.6956    0.1487E+000
  -4.6747    0.1471E+000
  -4.6539    0.1456E+000
  -4.6330    0.1441E+000
  -4.6122    0.1427E+000
  -4.5913    0.1414E+000
  -4.5705    0.1400E+000
  -4.5496    0.1388E+000
  -4.5288    0.1375E+000
  -4.5079    0.1363E+000
  -4.4871    0.1351E+000
  -4.4662    0.1340E+000
  -4.4454    0.1329E+000
  -4.4245    0.1318E+000
  -4.4037    0.1308E+000
  -4.3828    0.1298E+000
  -4.3620    0.1288E+000
  -4.3411    0.1279E+000
  -4.3203    0.1269E+000
  -4.2994    0.1260E+000
  -4.2786    0.1251E+000
  -4.2577    0.1243E+000
  -4.2369    0.1234E+000
  -4.2160    0.1226E+000
  -4.1952    0.1218E+000
  -4.1743    0.1210E+000
  -4.1535    0.1203E+000
  -4.1326    0.1195E+000
  -4.1118    0.1188E+000
  -4.0909    0.1181E+000
  -4.0701    0.1174E+000
  -4.0492    0.1167E+000
  -4.0284    0.1161E+000
  -4.0075    0.1154E+000
  -3.9867    0.1148E+000
  -3.9658    0.1142E+000
  -3.9450    0.1136E+000
  -3.9241    0.1130E+000
  -3.9033    0.1124E+000
  -3.8824    0.1119E+000
  -3.8616    0.1113E+000
  -3.8407    0.1108E+000
  -3.8198    0.1102E+000
  -3.7990    0.1097E+000
  -3.7781    0.1092E+000
  -3.7573    0.1087E+000
  -3.7364    0.1083E+000
  -3.7156    0.1078E+000
  -3.6947    0.1073E+000
  -3.6739    0.1069E+000
  -3.6530    0.1064E+000
  -3.6322    0.1060E+000
  -3.6113    0.1056E+000
  -3.5905    0.1052E+000
  -3.5696    0.1047E+000
  -3.5488    0.1044E+000
  -3.5279    0.1040E+000
  -3.5071    0.1036E+000
  -3.4862    0.1032E+000
  -3.4654    0.1029E+000
  -3.4445    0.1025E+000
  -3.4237    0.1025E+000
  -3.4028    0.1048E+000
  -3.3820    0.1214E+000
  -3.3611    0.1956E+000
